#  

#      WAVELENGTH      THROUGHPUT
#       angstroms                
4561.88 0.0008310053
4562.38 0.0008633497
4562.88 0.0008957432
4563.39 0.0009281240
4563.89 0.0009606807
4564.40 0.0009931273
4564.90 0.0010255611
4565.40 0.0010580449
4565.91 0.0010905471
4566.41 0.0011230367
4566.92 0.0011557656
4567.42 0.0011883199
4567.92 0.0012207348
4568.43 0.0012534835
4568.94 0.0012862834
4569.44 0.0013189083
4569.94 0.0013514252
4570.45 0.0013842767
4570.95 0.0014169873
4571.46 0.0014497157
4571.96 0.0014826210
4572.47 0.0015153843
4572.97 0.0015481968
4573.48 0.0015809973
4573.98 0.0016140063
4574.49 0.0016468738
4574.99 0.0016795685
4575.50 0.0017126605
4576.01 0.0017455796
4576.51 0.0017785188
4577.02 0.0018114764
4577.52 0.0018444532
4578.03 0.0018776393
4578.53 0.0019106799
4579.04 0.0019438982
4579.54 0.0019767853
4580.05 0.0020101292
4580.56 0.0020460347
4581.06 0.0020815803
4581.57 0.0021174879
4582.07 0.0021532443
4582.58 0.0021892272
4583.09 0.0022250576
4583.59 0.0022606989
4584.10 0.0022967407
4584.60 0.0023326256
4585.11 0.0023685646
4585.62 0.0024046616
4586.12 0.0024404320
4586.63 0.0024764308
4587.13 0.0025124142
4587.64 0.0025486253
4588.15 0.0025848554
4588.66 0.0026207541
4589.16 0.0026570217
4589.67 0.0026931356
4590.18 0.0027325440
4590.69 0.0027783204
4591.19 0.0028238561
4591.70 0.0028694600
4592.21 0.0029150886
4592.71 0.0029607411
4593.22 0.0030066365
4593.73 0.0030521135
4594.24 0.0030980551
4594.74 0.0031435827
4595.25 0.0031896175
4595.76 0.0032351909
4596.27 0.0032812706
4596.77 0.0033271056
4597.28 0.0033730139
4597.79 0.0034191705
4598.30 0.0034651680
4598.80 0.0035111427
4599.31 0.0035573650
4599.82 0.0036036584
4600.33 0.0036606113
4600.84 0.0037239244
4601.35 0.0037875767
4601.85 0.0038509556
4602.36 0.0039140666
4602.87 0.0039778177
4603.38 0.0040412951
4603.89 0.0041048647
4604.39 0.0041681044
4604.90 0.0042320467
4605.41 0.0042956504
4605.92 0.0043593456
4606.43 0.0044233861
4606.94 0.0044874613
4607.45 0.0045509456
4607.95 0.0046148262
4608.47 0.0046793130
4608.97 0.0047429728
4609.48 0.0048068961
4609.99 0.0048712189
4610.50 0.0049513092
4611.01 0.0050312590
4611.52 0.0051120228
4612.03 0.0051924449
4612.54 0.0052729873
4613.04 0.0053531062
4613.56 0.0054341190
4614.06 0.0055147075
4614.57 0.0055954112
4615.09 0.0056765438
4615.60 0.0057577160
4616.10 0.0058381529
4616.61 0.0059190988
4617.13 0.0060003960
4617.64 0.0060814259
4618.15 0.0061628050
4618.66 0.0062439223
4619.17 0.0063250790
4619.68 0.0064062716
4620.19 0.0064966586
4620.70 0.0066029534
4621.21 0.0067093075
4621.72 0.0068158215
4622.23 0.0069222793
4622.74 0.0070293922
4623.25 0.0071354457
4623.76 0.0072427985
4624.27 0.0073494753
4624.78 0.0074563942
4625.29 0.0075632684
4625.80 0.0076707119
4626.31 0.0077777913
4626.83 0.0078853331
4627.34 0.0079930432
4627.85 0.0080997861
4628.36 0.0082070824
4628.87 0.0083149395
4629.38 0.0084223374
4629.89 0.0085292813
4630.40 0.0086566157
4630.91 0.0087901833
4631.43 0.0089231757
4631.94 0.0090554739
4632.45 0.0091892392
4632.96 0.0093224317
4633.47 0.0094556987
4633.98 0.0095897969
4634.50 0.0097231812
4635.01 0.0098566380
4635.52 0.0099902736
4636.04 0.0101252507
4636.54 0.0102582769
4637.06 0.0103921220
4637.57 0.0105266517
4638.08 0.0106606076
4638.59 0.0107940389
4639.10 0.0109282900
4639.62 0.0110630765
4640.13 0.0112064059
4640.64 0.0113753080
4641.15 0.0115460596
4641.67 0.0117160595
4642.18 0.0118861401
4642.69 0.0120572996
4643.21 0.0122283838
4643.72 0.0123979368
4644.23 0.0125685403
4644.74 0.0127398760
4645.26 0.0129106440
4645.77 0.0130823070
4646.29 0.0132532370
4646.80 0.0134242536
4647.31 0.0135953541
4647.82 0.0137666920
4648.34 0.0139379630
4648.85 0.0141094977
4649.36 0.0142809394
4649.88 0.0144534429
4650.39 0.0146549773
4650.90 0.0148648635
4651.42 0.0150768169
4651.93 0.0152878582
4652.44 0.0154992537
4652.96 0.0157105615
4653.47 0.0159231624
4653.99 0.0161348713
4654.50 0.0163464924
4655.02 0.0165606288
4655.53 0.0167716301
4656.05 0.0169837337
4656.56 0.0171959709
4657.07 0.0174095344
4657.59 0.0176209557
4658.10 0.0178334891
4658.62 0.0180473186
4659.13 0.0182602591
4659.64 0.0184723401
4660.16 0.0186970236
4660.67 0.0189441715
4661.19 0.0191917004
4661.70 0.0194403212
4662.22 0.0196881202
4662.73 0.0199360126
4663.25 0.0201838154
4663.77 0.0204333916
4664.28 0.0206816958
4664.80 0.0209301460
4665.31 0.0211787291
4665.83 0.0214288252
4666.34 0.0216764643
4666.85 0.0219253939
4667.37 0.0221759032
4667.89 0.0224253700
4668.40 0.0226749350
4668.92 0.0229246244
4669.43 0.0231744383
4669.95 0.0234246263
4670.47 0.0236998266
4670.98 0.0239781254
4671.50 0.0242536358
4672.01 0.0245308568
4672.53 0.0248095219
4673.05 0.0250869990
4673.56 0.0253646033
4674.08 0.0256426094
4674.60 0.0259218159
4675.11 0.0262000837
4675.63 0.0264781412
4676.14 0.0267566181
4676.66 0.0270353134
4677.18 0.0273141220
4677.69 0.0275943485
4678.21 0.0278720679
4678.72 0.0281512080
4679.24 0.0284320735
4679.76 0.0287114759
4680.27 0.0290157952
4680.79 0.0293414722
4681.31 0.0296694319
4681.83 0.0299957073
4682.34 0.0303221352
4682.86 0.0306487372
4683.38 0.0309770277
4683.90 0.0313042198
4684.41 0.0316312730
4684.93 0.0319603050
4685.45 0.0322865494
4685.97 0.0326145186
4686.48 0.0329440817
4687.00 0.0332722645
4687.52 0.0335991010
4688.03 0.0339279428
4688.55 0.0342581534
4689.07 0.0345873057
4689.59 0.0349182210
4690.11 0.0352741647
4690.63 0.0357300131
4691.14 0.0361860931
4691.66 0.0366445623
4692.18 0.0371015361
4692.70 0.0375583471
4693.22 0.0380158193
4693.74 0.0384756823
4694.25 0.0389310376
4694.77 0.0393892492
4695.29 0.0398498007
4695.81 0.0403083714
4696.33 0.0407676399
4696.84 0.0412245742
4697.36 0.0416861000
4697.88 0.0421461620
4698.40 0.0426063594
4698.93 0.0430711529
4699.44 0.0435296431
4699.96 0.0439905384
4700.48 0.0443785638
4701.00 0.0447589848
4701.52 0.0451392674
4702.04 0.0455200822
4702.56 0.0459028133
4703.08 0.0462835735
4703.60 0.0466649192
4704.11 0.0470464273
4704.63 0.0474280887
4705.15 0.0478103101
4705.67 0.0481923756
4706.19 0.0485746299
4706.71 0.0489574254
4707.23 0.0493404378
4707.75 0.0497254401
4708.27 0.0501087766
4708.79 0.0504922688
4709.31 0.0508777431
4709.83 0.0512619667
4710.35 0.0516541629
4710.87 0.0520507376
4711.40 0.0524489990
4711.92 0.0528459759
4712.44 0.0532431538
4712.96 0.0536423723
4713.48 0.0540379804
4714.00 0.0544360084
4714.52 0.0548339906
4715.04 0.0552344149
4715.56 0.0556308439
4716.08 0.0560296946
4716.60 0.0564306802
4717.12 0.0568299814
4717.64 0.0572271492
4718.16 0.0576309138
4718.69 0.0580311292
4719.21 0.0584312021
4719.73 0.0588318388
4720.25 0.0592454132
4720.77 0.0596699096
4721.29 0.0600946220
4721.81 0.0605215818
4722.33 0.0609447614
4722.85 0.0613705944
4723.38 0.0617961975
4723.90 0.0622243989
4724.42 0.0626503554
4724.94 0.0630749364
4725.46 0.0635036379
4725.98 0.0639305794
4726.51 0.0643578747
4727.03 0.0647853730
4727.55 0.0652153901
4728.07 0.0656432159
4728.60 0.0660716881
4729.12 0.0665023930
4729.64 0.0669308163
4730.16 0.0673486804
4730.69 0.0677444580
4731.21 0.0681381626
4731.73 0.0685319967
4732.25 0.0689241898
4732.78 0.0693206557
4733.30 0.0697150379
4733.82 0.0701099276
4734.34 0.0705050741
4734.87 0.0709004628
4735.39 0.0712960106
4735.91 0.0716936213
4736.44 0.0720898876
4736.96 0.0724859585
4737.48 0.0728826355
4738.01 0.0732813688
4738.53 0.0736784396
4739.05 0.0740753235
4739.58 0.0744750078
4740.10 0.0748795659
4740.62 0.0753129364
4741.15 0.0757445145
4741.67 0.0761808196
4742.19 0.0766152687
4742.72 0.0770495561
4743.24 0.0774868001
4743.77 0.0779193345
4744.29 0.0783545253
4744.81 0.0787923816
4745.34 0.0792280886
4745.86 0.0796619745
4746.39 0.0801005146
4746.91 0.0805393180
4747.44 0.0809762111
4747.96 0.0814132616
4748.49 0.0818526790
4749.01 0.0822902471
4749.53 0.0827282920
4750.06 0.0831702359
4750.58 0.0836455587
4751.11 0.0841205935
4751.63 0.0845963000
4752.16 0.0850743952
4752.68 0.0855503970
4753.20 0.0860245353
4753.73 0.0865034569
4754.26 0.0869807289
4754.78 0.0874576854
4755.31 0.0879354130
4755.83 0.0884156582
4756.36 0.0888938592
4756.88 0.0893722712
4757.41 0.0898532292
4757.94 0.0903321870
4758.46 0.0908114073
4758.98 0.0912913037
4759.51 0.0917735691
4760.04 0.0922482207
4760.56 0.0926547856
4761.09 0.0930653468
4761.61 0.0934741058
4762.14 0.0938832005
4762.67 0.0942946707
4763.19 0.0947022084
4763.72 0.0951118544
4764.24 0.0955239467
4764.77 0.0959343044
4765.30 0.0963449288
4765.82 0.0967557307
4766.35 0.0971686239
4766.87 0.0975779562
4767.40 0.0979915622
4767.93 0.0984031639
4768.46 0.0988173256
4768.98 0.0992297295
4769.51 0.0996399488
4770.04 0.1000592870
4770.56 0.1005430180
4771.09 0.1010269425
4771.62 0.1015136458
4772.14 0.1019957721
4772.67 0.1024804561
4773.20 0.1029679889
4773.72 0.1034532613
4774.25 0.1039366293
4774.78 0.1044247455
4775.31 0.1049136147
4775.83 0.1053999993
4776.36 0.1058864212
4776.89 0.1063757858
4777.42 0.1068627755
4777.94 0.1073504065
4778.47 0.1078381650
4779.00 0.1083260955
4779.53 0.1088144887
4780.06 0.1093031887
4780.59 0.1097955289
4781.11 0.1102832079
4781.64 0.1107760285
4782.17 0.1112662906
4782.69 0.1117572185
4783.22 0.1122484311
4783.75 0.1127399284
4784.28 0.1132338171
4784.81 0.1137261769
4785.34 0.1142182369
4785.87 0.1147133643
4786.39 0.1152038208
4786.92 0.1156995850
4787.45 0.1161930130
4787.98 0.1166889012
4788.51 0.1171833484
4789.04 0.1176747814
4789.57 0.1181719997
4790.10 0.1186670998
4790.63 0.1191640343
4791.16 0.1196635465
4791.68 0.1201584679
4792.21 0.1206563507
4792.74 0.1211541611
4793.27 0.1216549995
4793.80 0.1221534728
4794.33 0.1226526171
4794.86 0.1231544068
4795.39 0.1236512660
4795.92 0.1241532710
4796.45 0.1246535630
4796.98 0.1251565021
4797.51 0.1256570095
4798.04 0.1261554805
4798.57 0.1266593084
4799.10 0.1271606508
4799.63 0.1276628457
4800.16 0.1281366372
4800.69 0.1285352935
4801.22 0.1289364509
4801.75 0.1293378734
4802.28 0.1297415023
4802.81 0.1301413343
4803.34 0.1305452248
4803.87 0.1309493188
4804.40 0.1313516191
4804.93 0.1317543647
4805.47 0.1321595265
4806.00 0.1325625614
4806.53 0.1329657444
4807.06 0.1333672484
4807.59 0.1337726373
4808.12 0.1341768251
4808.65 0.1345808909
4809.18 0.1349877647
4809.71 0.1353902364
4810.24 0.1358238377
4810.77 0.1362838910
4811.31 0.1367492827
4811.83 0.1372101911
4812.37 0.1376759618
4812.90 0.1381419225
4813.43 0.1386055549
4813.96 0.1390696466
4814.50 0.1395366271
4815.02 0.1399984874
4815.56 0.1404658765
4816.09 0.1409307255
4816.62 0.1413960634
4817.16 0.1418638132
4817.69 0.1423274586
4818.22 0.1427957685
4818.75 0.1432619255
4819.28 0.1437283918
4819.81 0.1441928837
4820.35 0.1446245492
4820.88 0.1450346556
4821.41 0.1454447588
4821.94 0.1458573555
4822.48 0.1462661285
4823.01 0.1466789305
4823.54 0.1470918803
4824.07 0.1475013652
4824.61 0.1479151525
4825.14 0.1483268898
4825.68 0.1487410337
4826.21 0.1491533667
4826.74 0.1495638283
4827.27 0.1499785968
4827.81 0.1503917651
4828.34 0.1508050209
4828.87 0.1512164631
4829.41 0.1516323375
4829.94 0.1520460054
4830.47 0.1524474399
4831.01 0.1528490816
4831.54 0.1532467938
4832.07 0.1536487860
4832.61 0.1540512570
4833.14 0.1544519408
4833.68 0.1548527677
4834.21 0.1552518058
4834.75 0.1556571566
4835.28 0.1560582381
4835.81 0.1564579821
4836.35 0.1568617734
4836.88 0.1572662259
4837.41 0.1576664953
4837.95 0.1580689964
4838.48 0.1584719773
4839.02 0.1588769528
4839.55 0.1592779226
4840.09 0.1596668566
4840.62 0.1599680229
4841.15 0.1602720112
4841.69 0.1605760960
4842.23 0.1608791812
4842.76 0.1611820243
4843.29 0.1614835946
4843.83 0.1617883856
4844.37 0.1620936028
4844.90 0.1623976045
4845.44 0.1627015215
4845.97 0.1630069292
4846.50 0.1633096020
4847.04 0.1636137084
4847.58 0.1639197937
4848.11 0.1642245712
4848.64 0.1645278584
4849.18 0.1648343159
4849.72 0.1651394647
4850.25 0.1654859742
4850.79 0.1658811319
4851.32 0.1662726612
4851.86 0.1666683484
4852.39 0.1670601334
4852.93 0.1674559872
4853.47 0.1678522879
4854.01 0.1682471150
4854.54 0.1686436737
4855.08 0.1690386111
4855.61 0.1694317096
4856.15 0.1698288260
4856.69 0.1702240127
4857.22 0.1706198278
4857.76 0.1710138025
4858.30 0.1714119805
4858.83 0.1718079544
4859.37 0.1722042842
4859.91 0.1726025319
4860.44 0.1728199239
4860.98 0.1730011319
4861.52 0.1731820515
4862.05 0.1733628248
4862.59 0.1735444134
4863.12 0.1737240947
4863.67 0.1739066457
4864.20 0.1740875620
4864.74 0.1742678961
4865.28 0.1744500284
4865.82 0.1746321610
4866.35 0.1748126379
4866.89 0.1749932964
4867.43 0.1751758458
4867.97 0.1753585225
4868.50 0.1755390148
4869.04 0.1757216724
4869.57 0.1759024542
4870.11 0.1760960289
4870.65 0.1763302931
4871.19 0.1765635847
4871.73 0.1767971420
4872.26 0.1770294522
4872.80 0.1772642708
4873.34 0.1774989547
4873.88 0.1777328836
4874.42 0.1779671335
4874.96 0.1782026899
4875.50 0.1784359580
4876.03 0.1786702588
4876.57 0.1789046982
4877.11 0.1791402079
4877.65 0.1793739018
4878.19 0.1796099632
4878.73 0.1798448119
4879.27 0.1800799451
4879.81 0.1803163325
4880.34 0.1805421716
4880.88 0.1807658664
4881.42 0.1809873200
4881.96 0.1812113787
4882.50 0.1814355198
4883.04 0.1816574727
4883.58 0.1818816126
4884.12 0.1821058518
4884.66 0.1823281215
4885.20 0.1825528538
4885.74 0.1827762392
4886.28 0.1829999438
4886.81 0.1832227039
4887.36 0.1834479826
4887.90 0.1836733067
4888.44 0.1838961098
4888.98 0.1841211585
4889.51 0.1843441963
4890.06 0.1845628759
4890.60 0.1847214122
4891.14 0.1848801082
4891.68 0.1850395513
4892.22 0.1851975541
4892.76 0.1853570048
4893.30 0.1855169441
4893.84 0.1856752215
4894.38 0.1858351307
4894.92 0.1859947581
4895.46 0.1861531649
4896.00 0.1863115104
4896.54 0.1864717259
4897.08 0.1866318426
4897.62 0.1867902796
4898.16 0.1869504043
4898.70 0.1871091772
4899.25 0.1872698600
4899.78 0.1874291142
4900.33 0.1875834630
4900.87 0.1877313370
4901.41 0.1878786121
4901.95 0.1880274294
4902.50 0.1881765503
4903.03 0.1883240929
4903.58 0.1884730869
4904.12 0.1886220176
4904.66 0.1887696443
4905.20 0.1889183324
4905.74 0.1890671404
4906.29 0.1892167737
4906.83 0.1893646962
4907.37 0.1895140721
4907.91 0.1896620893
4908.45 0.1898120198
4908.99 0.1899604220
4909.54 0.1901105013
4910.08 0.1902625919
4910.62 0.1904251773
4911.16 0.1905894971
4911.71 0.1907534422
4912.25 0.1909160685
4912.79 0.1910803524
4913.34 0.1912447989
4913.88 0.1914077951
4914.42 0.1915723968
4914.97 0.1917362695
4915.51 0.1919004886
4916.05 0.1920637551
4916.59 0.1922287066
4917.14 0.1923937429
4917.68 0.1925576029
4918.22 0.1927213102
4918.76 0.1928865336
4919.31 0.1930518281
4919.85 0.1932162081
4920.40 0.1933501424
4920.94 0.1934732219
4921.48 0.1935952985
4922.03 0.1937187385
4922.57 0.1938420170
4923.11 0.1939641604
4923.66 0.1940873389
4924.20 0.1942105927
4924.74 0.1943328951
4925.29 0.1944552591
4925.83 0.1945785802
4926.38 0.1947021083
4926.92 0.1948243548
4927.46 0.1949469001
4928.01 0.1950707196
4928.55 0.1951946144
4929.10 0.1953175431
4929.64 0.1954418787
4930.19 0.1955694524
4930.73 0.1957044043
4931.28 0.1958410959
4931.82 0.1959779975
4932.36 0.1961133939
4932.91 0.1962503861
4933.46 0.1963873243
4934.00 0.1965231131
4934.54 0.1966595607
4935.09 0.1967961658
4935.64 0.1969330608
4936.18 0.1970688581
4936.73 0.1972063057
4937.27 0.1973423382
4937.81 0.1974794273
4938.36 0.1976153253
4938.90 0.1977527826
4939.45 0.1978901730
4939.99 0.1980261468
4940.54 0.1979792365
4941.09 0.1979305540
4941.63 0.1978823029
4942.18 0.1978334043
4942.73 0.1977844900
4943.27 0.1977359674
4943.82 0.1976867843
4944.37 0.1976377304
4944.91 0.1975892012
4945.45 0.1975402865
4946.00 0.1974907229
4946.55 0.1974413685
4947.10 0.1973924995
4947.64 0.1973436150
4948.19 0.1972942135
4948.73 0.1972446637
4949.28 0.1971954945
4949.83 0.1971456751
4950.38 0.1973939466
4950.92 0.1977744221
4951.47 0.1981590153
4952.02 0.1985441924
4952.56 0.1989252765
4953.11 0.1993105738
4953.66 0.1996963627
4954.20 0.2000784671
4954.75 0.2004604651
4955.30 0.2008466395
4955.85 0.2012327496
4956.39 0.2016156357
4956.94 0.2019983228
4957.49 0.2023853230
4958.04 0.2027723113
4958.58 0.2031556087
4959.13 0.2035430363
4959.68 0.2039305449
4960.23 0.2042034795
4960.77 0.2043190055
4961.32 0.2044347273
4961.87 0.2045494797
4962.42 0.2046652943
4962.97 0.2047812224
4963.52 0.2048960359
4964.06 0.2050115097
4964.61 0.2051269524
4965.16 0.2052430970
4965.71 0.2053577133
4966.26 0.2054738991
4966.80 0.2055892067
4967.35 0.2057053409
4967.90 0.2058202245
4968.45 0.2059365858
4969.00 0.2060525130
4969.55 0.2061685122
4970.10 0.2063234402
4970.65 0.2066581986
4971.19 0.2069899341
4971.75 0.2073252440
4972.30 0.2076604884
4972.84 0.2079922428
4973.39 0.2083279042
4973.94 0.2086610050
4974.49 0.2089969395
4975.04 0.2093295255
4975.59 0.2096658773
4976.14 0.2100022987
4976.69 0.2103354626
4977.23 0.2106687877
4977.79 0.2110060174
4978.34 0.2113432318
4978.89 0.2116778301
4979.44 0.2120149886
4979.99 0.2123522673
4980.54 0.2124170240
4981.09 0.2124774279
4981.64 0.2125383566
4982.19 0.2125985209
4982.74 0.2126589493
4983.29 0.2127188500
4983.84 0.2127794386
4984.39 0.2128396779
4984.94 0.2129004694
4985.49 0.2129611252
4986.04 0.2130212957
4986.59 0.2130812449
4987.14 0.2131419252
4987.69 0.2132023337
4988.24 0.2132622566
4988.80 0.2133229614
4989.35 0.2133837678
4989.90 0.2134439951
4990.45 0.2136201004
4991.00 0.2138228151
4991.55 0.2140234869
4992.10 0.2142265608
4992.65 0.2144278209
4993.21 0.2146311103
4993.76 0.2148332396
4994.31 0.2150354943
4994.86 0.2152386728
4995.41 0.2154401293
4995.97 0.2156438975
4996.51 0.2158456698
4997.07 0.2160496109
4997.62 0.2162515987
4998.17 0.2164555257
4998.72 0.2166583769
4999.27 0.2168615985
4999.83 0.2170662496
5000.38 0.2172619143
5000.93 0.2174520153
5001.48 0.2176429451
5002.03 0.2178340489
5002.59 0.2180260692
5003.15 0.2182182203
5003.69 0.2184084614
5004.25 0.2186006867
5004.80 0.2187910012
5005.35 0.2189836254
5005.91 0.2191751751
5006.46 0.2193669491
5007.01 0.2195577353
5007.56 0.2197503706
5008.12 0.2199429935
5008.67 0.2201338464
5009.22 0.2203267310
5009.78 0.2205195152
5010.33 0.2206706252
5010.88 0.2207953642
5011.44 0.2209209581
5011.99 0.2210461607
5012.55 0.2211717056
5013.10 0.2212962079
5013.65 0.2214217532
5014.20 0.2215463935
5014.76 0.2216723092
5015.32 0.2217981534
5015.87 0.2219225787
5016.42 0.2220477716
5016.97 0.2221728432
5017.53 0.2222988707
5018.08 0.2224237600
5018.64 0.2225491800
5019.19 0.2226760652
5019.74 0.2228009272
5020.30 0.2228810776
5020.86 0.2229219274
5021.41 0.2229628747
5021.97 0.2230039589
5022.52 0.2230449186
5023.07 0.2230861536
5023.63 0.2231270658
5024.18 0.2231680312
5024.74 0.2232091335
5025.29 0.2232499232
5025.85 0.2232909439
5026.40 0.2233321510
5026.96 0.2233734167
5027.51 0.2234140771
5028.07 0.2234550129
5028.62 0.2234960516
5029.18 0.2235370940
5029.74 0.2235785112
5030.29 0.2236802215
5030.85 0.2238342584
5031.40 0.2239893543
5031.96 0.2241446673
5032.52 0.2243005195
5033.07 0.2244563065
5033.63 0.2246111460
5034.18 0.2247672735
5034.74 0.2249220762
5035.30 0.2250783558
5035.85 0.2252339155
5036.41 0.2253896926
5036.96 0.2255447539
5037.52 0.2257012886
5038.08 0.2258577582
5038.63 0.2260127621
5039.19 0.2261693840
5039.75 0.2263261295
5040.30 0.2263726573
5040.86 0.2263278242
5041.41 0.2262830205
5041.97 0.2262379137
5042.53 0.2261926026
5043.09 0.2261476675
5043.65 0.2261022758
5044.20 0.2260572603
5044.76 0.2260119815
5045.32 0.2259665927
5045.87 0.2259214813
5046.43 0.2258763048
5046.98 0.2258311576
5047.55 0.2257851846
5048.10 0.2257398722
5048.66 0.2256943951
5049.22 0.2256485092
5049.77 0.2256034339
5050.33 0.2256874252
5050.89 0.2258581629
5051.45 0.2260302908
5052.01 0.2262024512
5052.56 0.2263737584
5053.12 0.2265467403
5053.68 0.2267182468
5054.24 0.2268899298
5054.80 0.2270626762
5055.35 0.2272340504
5055.91 0.2274063486
5056.47 0.2275785847
5057.03 0.2277515111
5057.59 0.2279229650
5058.14 0.2280952038
5058.70 0.2282681785
5059.26 0.2284405770
5059.82 0.2286139011
5060.38 0.2285589097
5060.94 0.2283973926
5061.50 0.2282364068
5062.06 0.2280754295
5062.62 0.2279138831
5063.18 0.2277527739
5063.74 0.2275912444
5064.30 0.2274289107
5064.85 0.2272680170
